TITLE	231114_20mM_HEPES_10mm-cuvette-abs
DATA TYPE	
ORIGIN	JASCO
OWNER	
DATE	23/11/14
TIME	16:13:06
SPECTROMETER/DATA SYSTEM	
LOCALE	1033
RESOLUTION	
DELTAX	-0.1
XUNITS	NANOMETERS
YUNITS	ARBITRARY UNITS
FIRSTX	  350.0000
LASTX	  200.0000
NPOINTS	    1501
FIRSTY	     0.93431
MAXY	     4.95016
MINY	    -5.17613
XYDATA
350.0000	0.934307	0.770718
349.9000	0.943207	0.770647
349.8000	0.949282	0.770584
349.7000	0.958911	0.77055
349.6000	0.968243	0.770511
349.5000	0.970585	0.770474
349.4000	0.967887	0.770424
349.3000	0.962708	0.770352
349.2000	0.960574	0.77028
349.1000	0.962423	0.770182
349.0000	0.963748	0.770117
348.9000	0.962665	0.770053
348.8000	0.958561	0.769994
348.7000	0.966159	0.769939
348.6000	0.979547	0.769872
348.5000	1.00248	0.769809
348.4000	1.02507	0.769732
348.3000	1.04873	0.769675
348.2000	1.07083	0.769627
348.1000	1.0866	0.769542
348.0000	1.09509	0.769475
347.9000	1.10332	0.769404
347.8000	1.1059	0.769312
347.7000	1.1105	0.769243
347.6000	1.11844	0.769179
347.5000	1.12952	0.769092
347.4000	1.13701	0.768988
347.3000	1.14475	0.768907
347.2000	1.15558	0.768809
347.1000	1.1673	0.7687
347.0000	1.17264	0.768634
346.9000	1.17031	0.768537
346.8000	1.16536	0.768419
346.7000	1.16552	0.768304
346.6000	1.16515	0.768213
346.5000	1.16435	0.768099
346.4000	1.15012	0.76796
346.3000	1.1335	0.767856
346.2000	1.12196	0.767733
346.1000	1.11493	0.767603
346.0000	1.10709	0.767489
345.9000	1.09662	0.767349
345.8000	1.09621	0.767201
345.7000	1.09937	0.767056
345.6000	1.09818	0.766906
345.5000	1.09909	0.76675
345.4000	1.09961	0.766592
345.3000	1.09616	0.76644
345.2000	1.08942	0.766267
345.1000	1.08146	0.766092
345.0000	1.08017	0.76594
344.9000	1.07451	0.765773
344.8000	1.07221	0.765607
344.7000	1.06952	0.765424
344.6000	1.06477	0.765256
344.5000	1.05412	0.765083
344.4000	1.04308	0.764883
344.3000	1.03594	0.764709
344.2000	1.0245	0.764542
344.1000	1.01162	0.764348
344.0000	1.00726	0.764173
343.9000	1.00238	0.764001
343.8000	0.998428	0.763798
343.7000	0.993783	0.76358
343.6000	0.991322	0.763404
343.5000	0.984403	0.763206
343.4000	0.969816	0.762995
343.3000	0.951923	0.762801
343.2000	0.931732	0.762585
343.1000	0.912713	0.762356
343.0000	0.893126	0.76215
342.9000	0.879129	0.761928
342.8000	0.875214	0.761706
342.7000	0.874359	0.761521
342.6000	0.873776	0.76131
342.5000	0.872332	0.761086
342.4000	0.868796	0.760904
342.3000	0.86246	0.760693
342.2000	0.858953	0.760477
342.1000	0.84887	0.760223
342.0000	0.837583	0.759988
341.9000	0.828084	0.759757
341.8000	0.818506	0.7595
341.7000	0.80449	0.759261
341.6000	0.787074	0.759029
341.5000	0.773118	0.758774
341.4000	0.765303	0.758544
341.3000	0.761965	0.758321
341.2000	0.756426	0.758075
341.1000	0.754171	0.757846
341.0000	0.752059	0.757623
340.9000	0.744895	0.757378
340.8000	0.733142	0.757151
340.7000	0.718742	0.756921
340.6000	0.706022	0.756679
340.5000	0.697693	0.756455
340.4000	0.693681	0.756239
340.3000	0.699478	0.756008
340.2000	0.713638	0.755803
340.1000	0.721182	0.75558
340.0000	0.724416	0.755339
339.9000	0.7261	0.755103
339.8000	0.723472	0.754865
339.7000	0.73367	0.754627
339.6000	0.743591	0.754397
339.5000	0.755081	0.754176
339.4000	0.760224	0.753944
339.3000	0.764475	0.753712
339.2000	0.763396	0.753493
339.1000	0.755056	0.753255
339.0000	0.750406	0.753022
338.9000	0.742306	0.752798
338.8000	0.735999	0.752564
338.7000	0.740609	0.752316
338.6000	0.746556	0.752093
338.5000	0.754786	0.751874
338.4000	0.753482	0.751633
338.3000	0.747107	0.751405
338.2000	0.740951	0.751176
338.1000	0.73453	0.75094
338.0000	0.725167	0.750707
337.9000	0.721116	0.75049
337.8000	0.724139	0.75026
337.7000	0.726539	0.750052
337.6000	0.732407	0.749832
337.5000	0.738868	0.749596
337.4000	0.747146	0.749397
337.3000	0.752195	0.749181
337.2000	0.761638	0.748959
337.1000	0.770173	0.748772
337.0000	0.775613	0.748556
336.9000	0.783446	0.748332
336.8000	0.794348	0.748143
336.7000	0.805099	0.747934
336.6000	0.810413	0.747714
336.5000	0.819461	0.74751
336.4000	0.831642	0.747303
336.3000	0.845962	0.747106
336.2000	0.854197	0.746911
336.1000	0.862396	0.746705
336.0000	0.867056	0.746503
335.9000	0.871888	0.746314
335.8000	0.878917	0.746116
335.7000	0.879702	0.745899
335.6000	0.881677	0.745702
335.5000	0.878199	0.745504
335.4000	0.877436	0.745323
335.3000	0.871574	0.745126
335.2000	0.8604	0.744927
335.1000	0.851344	0.744739
335.0000	0.838149	0.744548
334.9000	0.827187	0.744332
334.8000	0.812699	0.744136
334.7000	0.799375	0.743947
334.6000	0.78949	0.743745
334.5000	0.784031	0.743565
334.4000	0.781017	0.743377
334.3000	0.777162	0.743178
334.2000	0.771078	0.743006
334.1000	0.770629	0.74282
334.0000	0.773669	0.742634
333.9000	0.770241	0.742461
333.8000	0.769437	0.742276
333.7000	0.764813	0.742075
333.6000	0.755351	0.7419
333.5000	0.747334	0.741719
333.4000	0.747249	0.741572
333.3000	0.746644	0.741398
333.2000	0.751921	0.741217
333.1000	0.750846	0.74105
333.0000	0.739717	0.74087
332.9000	0.727387	0.74069
332.8000	0.714516	0.74052
332.7000	0.707869	0.740345
332.6000	0.702569	0.740154
332.5000	0.697046	0.739984
332.4000	0.692716	0.739823
332.3000	0.691217	0.739646
332.2000	0.691086	0.739482
332.1000	0.68354	0.73931
332.0000	0.676849	0.739153
331.9000	0.671559	0.739003
331.8000	0.66602	0.738831
331.7000	0.668346	0.738682
331.6000	0.675952	0.738527
331.5000	0.677348	0.738362
331.4000	0.67427	0.73822
331.3000	0.673767	0.738057
331.2000	0.67479	0.73788
331.1000	0.672303	0.73772
331.0000	0.67051	0.737554
330.9000	0.662488	0.737417
330.8000	0.643398	0.73725
330.7000	0.622372	0.737064
330.6000	0.606254	0.7369
330.5000	0.589767	0.736732
330.4000	0.576567	0.736568
330.3000	0.567113	0.736416
330.2000	0.555135	0.736253
330.1000	0.548336	0.736077
330.0000	0.545743	0.735927
329.9000	0.545372	0.735785
329.8000	0.543081	0.735644
329.7000	0.53503	0.735487
329.6000	0.520996	0.735312
329.5000	0.503489	0.735155
329.4000	0.483348	0.734999
329.3000	0.470272	0.734826
329.2000	0.454998	0.734676
329.1000	0.435075	0.734505
329.0000	0.419941	0.73435
328.9000	0.404781	0.734167
328.8000	0.394433	0.733983
328.7000	0.380695	0.733829
328.6000	0.368545	0.733664
328.5000	0.358677	0.733486
328.4000	0.352327	0.733315
328.3000	0.356033	0.733142
328.2000	0.360907	0.733005
328.1000	0.368355	0.732854
328.0000	0.373443	0.732686
327.9000	0.376226	0.73252
327.8000	0.376583	0.732347
327.7000	0.374388	0.73218
327.6000	0.370023	0.732011
327.5000	0.37377	0.731849
327.4000	0.373395	0.731681
327.3000	0.378462	0.731513
327.2000	0.384849	0.731333
327.1000	0.386036	0.731158
327.0000	0.393129	0.730967
326.9000	0.404926	0.730786
326.8000	0.409981	0.730601
326.7000	0.412842	0.730395
326.6000	0.409896	0.730203
326.5000	0.401496	0.729983
326.4000	0.403711	0.72978
326.3000	0.408542	0.729562
326.2000	0.417895	0.729326
326.1000	0.421099	0.729114
326.0000	0.426309	0.728888
325.9000	0.434513	0.728675
325.8000	0.442227	0.728434
325.7000	0.449963	0.728184
325.6000	0.456325	0.727936
325.5000	0.462357	0.727678
325.4000	0.464308	0.727426
325.3000	0.45896	0.727154
325.2000	0.459071	0.726891
325.1000	0.46047	0.726646
325.0000	0.456007	0.726401
324.9000	0.452158	0.726158
324.8000	0.454937	0.725915
324.7000	0.457656	0.725667
324.6000	0.45665	0.725452
324.5000	0.456623	0.725251
324.4000	0.463058	0.725066
324.3000	0.479537	0.724889
324.2000	0.501428	0.724705
324.1000	0.526114	0.724562
324.0000	0.547597	0.724401
323.9000	0.56251	0.724249
323.8000	0.575049	0.724079
323.7000	0.583445	0.723897
323.6000	0.588548	0.723726
323.5000	0.601642	0.72355
323.4000	0.604615	0.723388
323.3000	0.602568	0.723201
323.2000	0.599746	0.723013
323.1000	0.600116	0.722832
323.0000	0.606244	0.722652
322.9000	0.616716	0.722477
322.8000	0.625274	0.72229
322.7000	0.632411	0.722096
322.6000	0.63324	0.721916
322.5000	0.632999	0.721719
322.4000	0.639961	0.721538
322.3000	0.646316	0.721375
322.2000	0.656444	0.721234
322.1000	0.666104	0.721085
322.0000	0.673111	0.720919
321.9000	0.683885	0.720767
321.8000	0.699652	0.720612
321.7000	0.712546	0.720471
321.6000	0.722171	0.720317
321.5000	0.725458	0.720138
321.4000	0.725444	0.719969
321.3000	0.726111	0.719803
321.2000	0.720507	0.719636
321.1000	0.719987	0.719471
321.0000	0.729268	0.719338
320.9000	0.738382	0.719199
320.8000	0.743207	0.719052
320.7000	0.746381	0.718911
320.6000	0.744388	0.718762
320.5000	0.740689	0.718624
320.4000	0.737092	0.718501
320.3000	0.734743	0.718382
320.2000	0.733857	0.718256
320.1000	0.734178	0.718123
320.0000	0.735548	0.718009
319.9000	0.739641	0.717894
319.8000	0.745549	0.717796
319.7000	0.748655	0.71769
319.6000	0.749434	0.717601
319.5000	0.743958	0.717492
319.4000	0.736081	0.717385
319.3000	0.726145	0.717289
319.2000	0.718728	0.717193
319.1000	0.708245	0.717114
319.0000	0.697866	0.717033
318.9000	0.688604	0.716983
318.8000	0.67786	0.716929
318.7000	0.673537	0.716894
318.6000	0.670669	0.716848
318.5000	0.670405	0.716791
318.4000	0.678574	0.716748
318.3000	0.689268	0.716684
318.2000	0.696623	0.716623
318.1000	0.698714	0.716547
318.0000	0.699238	0.716461
317.9000	0.697873	0.716355
317.8000	0.691253	0.716216
317.7000	0.674203	0.716071
317.6000	0.65483	0.715913
317.5000	0.637135	0.715759
317.4000	0.618438	0.715587
317.3000	0.601558	0.715426
317.2000	0.581741	0.715261
317.1000	0.564363	0.715107
317.0000	0.549701	0.714945
316.9000	0.534838	0.714796
316.8000	0.523236	0.714639
316.7000	0.518378	0.71448
316.6000	0.516526	0.714323
316.5000	0.51559	0.714168
316.4000	0.514403	0.714013
316.3000	0.51669	0.713856
316.2000	0.516305	0.713696
316.1000	0.518224	0.713528
316.0000	0.517872	0.713362
315.9000	0.522737	0.713191
315.8000	0.532095	0.713028
315.7000	0.534636	0.712847
315.6000	0.541989	0.712649
315.5000	0.549049	0.712465
315.4000	0.555551	0.712262
315.3000	0.565096	0.712085
315.2000	0.567085	0.711898
315.1000	0.563333	0.711723
315.0000	0.554415	0.711527
314.9000	0.552298	0.711359
314.8000	0.545245	0.711189
314.7000	0.539992	0.710999
314.6000	0.536074	0.710829
314.5000	0.536488	0.710672
314.4000	0.535795	0.710513
314.3000	0.532134	0.71034
314.2000	0.537713	0.710188
314.1000	0.539745	0.710041
314.0000	0.542831	0.709914
313.9000	0.548588	0.709772
313.8000	0.554176	0.709641
313.7000	0.558734	0.709498
313.6000	0.552819	0.709384
313.5000	0.546975	0.709256
313.4000	0.539745	0.709143
313.3000	0.535525	0.709018
313.2000	0.533498	0.708905
313.1000	0.532275	0.708793
313.0000	0.530547	0.708695
312.9000	0.530187	0.708599
312.8000	0.529079	0.708514
312.7000	0.527697	0.708418
312.6000	0.526471	0.708319
312.5000	0.524441	0.70822
312.4000	0.521905	0.708129
312.3000	0.524403	0.708038
312.2000	0.5298	0.707927
312.1000	0.536576	0.707838
312.0000	0.542124	0.70773
311.9000	0.544255	0.707642
311.8000	0.538296	0.707533
311.7000	0.526985	0.707421
311.6000	0.516851	0.707334
311.5000	0.51058	0.707238
311.4000	0.513685	0.707159
311.3000	0.519724	0.70709
311.2000	0.532662	0.707019
311.1000	0.541827	0.706956
311.0000	0.546767	0.706893
310.9000	0.553618	0.706837
310.8000	0.559477	0.706783
310.7000	0.564217	0.706715
310.6000	0.571241	0.706662
310.5000	0.578355	0.706598
310.4000	0.585612	0.706532
310.3000	0.59408	0.70648
310.2000	0.598119	0.706423
310.1000	0.592706	0.706379
310.0000	0.592098	0.706323
309.9000	0.587255	0.706285
309.8000	0.580114	0.706242
309.7000	0.57431	0.706223
309.6000	0.568191	0.706222
309.5000	0.565732	0.706187
309.4000	0.569227	0.70618
309.3000	0.571371	0.706174
309.2000	0.569898	0.706163
309.1000	0.569643	0.706165
309.0000	0.569793	0.706167
308.9000	0.566093	0.706171
308.8000	0.561164	0.706176
308.7000	0.557609	0.706193
308.6000	0.554824	0.706195
308.5000	0.55241	0.706211
308.4000	0.55295	0.706216
308.3000	0.555974	0.70625
308.2000	0.556628	0.706252
308.1000	0.560444	0.706282
308.0000	0.563131	0.706314
307.9000	0.568296	0.706326
307.8000	0.565514	0.706353
307.7000	0.559863	0.706352
307.6000	0.555586	0.706373
307.5000	0.544174	0.706361
307.4000	0.531811	0.706342
307.3000	0.524094	0.706314
307.2000	0.520901	0.706307
307.1000	0.51747	0.706295
307.0000	0.513699	0.706277
306.9000	0.515952	0.706263
306.8000	0.512333	0.70627
306.7000	0.512459	0.706239
306.6000	0.51158	0.70624
306.5000	0.510631	0.706239
306.4000	0.510444	0.706247
306.3000	0.512146	0.706234
306.2000	0.5215	0.706236
306.1000	0.534471	0.706229
306.0000	0.542586	0.706229
305.9000	0.555141	0.706262
305.8000	0.564907	0.706268
305.7000	0.571693	0.706285
305.6000	0.572093	0.706279
305.5000	0.569519	0.706306
305.4000	0.573309	0.706338
305.3000	0.573116	0.706373
305.2000	0.573744	0.706369
305.1000	0.574793	0.706411
305.0000	0.575193	0.706423
304.9000	0.574632	0.706439
304.8000	0.572709	0.706482
304.7000	0.563967	0.706497
304.6000	0.554649	0.706535
304.5000	0.549788	0.706562
304.4000	0.55542	0.706599
304.3000	0.565729	0.706634
304.2000	0.573247	0.706667
304.1000	0.584544	0.706708
304.0000	0.595507	0.706752
303.9000	0.597349	0.706795
303.8000	0.598002	0.706848
303.7000	0.599061	0.706876
303.6000	0.599378	0.706912
303.5000	0.60306	0.706938
303.4000	0.607637	0.706954
303.3000	0.610982	0.707001
303.2000	0.615818	0.707058
303.1000	0.620338	0.707112
303.0000	0.619712	0.707139
302.9000	0.626419	0.707179
302.8000	0.632681	0.707251
302.7000	0.638777	0.707308
302.6000	0.641585	0.707353
302.5000	0.646191	0.707394
302.4000	0.643376	0.707433
302.3000	0.638911	0.707481
302.2000	0.63185	0.707518
302.1000	0.627862	0.707546
302.0000	0.625114	0.707586
301.9000	0.623337	0.707619
301.8000	0.621608	0.707653
301.7000	0.618617	0.707693
301.6000	0.614556	0.707713
301.5000	0.618263	0.707772
301.4000	0.625767	0.707796
301.3000	0.627626	0.707828
301.2000	0.623149	0.70785
301.1000	0.615673	0.707843
301.0000	0.605594	0.707838
300.9000	0.598274	0.707825
300.8000	0.596143	0.707852
300.7000	0.593271	0.707853
300.6000	0.582499	0.707855
300.5000	0.573327	0.70785
300.4000	0.570805	0.707836
300.3000	0.565848	0.707852
300.2000	0.558938	0.707833
300.1000	0.551874	0.707811
300.0000	0.549315	0.707808
299.9000	0.547527	0.707787
299.8000	0.549592	0.707752
299.7000	0.552586	0.707726
299.6000	0.552166	0.707701
299.5000	0.543968	0.707697
299.4000	0.535219	0.707681
299.3000	0.527451	0.70765
299.2000	0.517762	0.707635
299.1000	0.516004	0.707613
299.0000	0.515971	0.70758
298.9000	0.519639	0.707568
298.8000	0.520865	0.707514
298.7000	0.513448	0.707434
298.6000	0.508956	0.707382
298.5000	0.502785	0.707339
298.4000	0.495022	0.707264
298.3000	0.487499	0.707205
298.2000	0.487834	0.707128
298.1000	0.487121	0.707055
298.0000	0.487919	0.706972
297.9000	0.492032	0.706898
297.8000	0.495233	0.706848
297.7000	0.495916	0.706774
297.6000	0.500246	0.706708
297.5000	0.505038	0.706648
297.4000	0.510033	0.706559
297.3000	0.519059	0.706496
297.2000	0.531498	0.706408
297.1000	0.536103	0.706323
297.0000	0.538085	0.706244
296.9000	0.538598	0.706171
296.8000	0.539526	0.706101
296.7000	0.541675	0.706039
296.6000	0.540172	0.70596
296.5000	0.538691	0.705857
296.4000	0.538346	0.705747
296.3000	0.533765	0.70566
296.2000	0.524599	0.705555
296.1000	0.515102	0.705451
296.0000	0.508955	0.705359
295.9000	0.502888	0.705276
295.8000	0.497984	0.705186
295.7000	0.499179	0.705097
295.6000	0.498569	0.705013
295.5000	0.501305	0.704932
295.4000	0.496597	0.704833
295.3000	0.490546	0.70472
295.2000	0.487955	0.704623
295.1000	0.485358	0.704511
295.0000	0.486815	0.704389
294.9000	0.480508	0.704268
294.8000	0.4661	0.704121
294.7000	0.456786	0.703966
294.6000	0.454094	0.703845
294.5000	0.448632	0.703695
294.4000	0.450865	0.70355
294.3000	0.454483	0.703399
294.2000	0.458454	0.703197
294.1000	0.467063	0.702996
294.0000	0.479409	0.702775
293.9000	0.489729	0.702545
293.8000	0.495071	0.702311
293.7000	0.49394	0.70207
293.6000	0.497427	0.701805
293.5000	0.501872	0.701585
293.4000	0.509696	0.70139
293.3000	0.512022	0.701196
293.2000	0.51356	0.701051
293.1000	0.509681	0.700938
293.0000	0.505472	0.700818
292.9000	0.500563	0.700719
292.8000	0.502412	0.70063
292.7000	0.507997	0.700568
292.6000	0.515888	0.700507
292.5000	0.519999	0.700427
292.4000	0.522357	0.70038
292.3000	0.520807	0.700346
292.2000	0.517423	0.700286
292.1000	0.519555	0.700236
292.0000	0.524024	0.700213
291.9000	0.531475	0.700174
291.8000	0.541323	0.700152
291.7000	0.551992	0.700116
291.6000	0.560581	0.700093
291.5000	0.562022	0.700065
291.4000	0.570641	0.700039
291.3000	0.575829	0.70002
291.2000	0.574213	0.699976
291.1000	0.572401	0.699945
291.0000	0.575396	0.699899
290.9000	0.5787	0.699856
290.8000	0.578411	0.699805
290.7000	0.580106	0.699771
290.6000	0.584072	0.699724
290.5000	0.58862	0.699693
290.4000	0.591769	0.699661
290.3000	0.593519	0.699658
290.2000	0.596981	0.699616
290.1000	0.604316	0.699596
290.0000	0.611684	0.699559
289.9000	0.619459	0.699519
289.8000	0.62704	0.699505
289.7000	0.641275	0.69949
289.6000	0.660717	0.699472
289.5000	0.68019	0.699452
289.4000	0.700497	0.699442
289.3000	0.71223	0.699421
289.2000	0.726673	0.699407
289.1000	0.736975	0.699391
289.0000	0.745808	0.69936
288.9000	0.756522	0.699339
288.8000	0.762354	0.699323
288.7000	0.768887	0.699314
288.6000	0.772472	0.699302
288.5000	0.7766	0.699281
288.4000	0.779042	0.699282
288.3000	0.784558	0.699291
288.2000	0.797535	0.699313
288.1000	0.812536	0.699338
288.0000	0.82455	0.699369
287.9000	0.830341	0.699405
287.8000	0.838634	0.699463
287.7000	0.839785	0.699522
287.6000	0.834798	0.699588
287.5000	0.826254	0.699685
287.4000	0.815105	0.699806
287.3000	0.804623	0.699956
287.2000	0.790932	0.700093
287.1000	0.779163	0.700243
287.0000	0.761925	0.700387
286.9000	0.746359	0.700533
286.8000	0.73497	0.70066
286.7000	0.725126	0.70077
286.6000	0.719722	0.700866
286.5000	0.716494	0.700922
286.4000	0.713446	0.700953
286.3000	0.710403	0.700967
286.2000	0.709424	0.700987
286.1000	0.703899	0.700981
286.0000	0.696695	0.700962
285.9000	0.681485	0.700939
285.8000	0.670031	0.700917
285.7000	0.658237	0.700868
285.6000	0.651612	0.700848
285.5000	0.646802	0.700829
285.4000	0.639164	0.700823
285.3000	0.635252	0.700791
285.2000	0.628063	0.700765
285.1000	0.62309	0.700743
285.0000	0.6183	0.700733
284.9000	0.616584	0.700723
284.8000	0.617817	0.700714
284.7000	0.611748	0.700699
284.6000	0.60694	0.700677
284.5000	0.606743	0.700661
284.4000	0.603726	0.700639
284.3000	0.597577	0.70064
284.2000	0.58877	0.700639
284.1000	0.575227	0.700645
284.0000	0.560312	0.700649
283.9000	0.546088	0.700633
283.8000	0.535041	0.700629
283.7000	0.524935	0.700626
283.6000	0.517339	0.700595
283.5000	0.513092	0.700581
283.4000	0.507716	0.70057
283.3000	0.504216	0.700579
283.2000	0.499415	0.700573
283.1000	0.491006	0.700564
283.0000	0.468606	0.70054
282.9000	0.448421	0.70052
282.8000	0.428753	0.700511
282.7000	0.406824	0.700486
282.6000	0.388787	0.700479
282.5000	0.371252	0.700485
282.4000	0.356306	0.700496
282.3000	0.340736	0.700512
282.2000	0.326195	0.700521
282.1000	0.314881	0.700534
282.0000	0.302112	0.700549
281.9000	0.293613	0.700565
281.8000	0.28024	0.700578
281.7000	0.271926	0.700605
281.6000	0.263663	0.700627
281.5000	0.255793	0.700664
281.4000	0.249291	0.700705
281.3000	0.246019	0.700745
281.2000	0.242195	0.700778
281.1000	0.240355	0.70081
281.0000	0.243219	0.700858
280.9000	0.244522	0.700896
280.8000	0.249778	0.700936
280.7000	0.253854	0.700977
280.6000	0.260548	0.701014
280.5000	0.268454	0.701069
280.4000	0.281559	0.701138
280.3000	0.298591	0.701212
280.2000	0.313768	0.701289
280.1000	0.320104	0.701346
280.0000	0.317273	0.701399
279.9000	0.309612	0.701462
279.8000	0.304744	0.701532
279.7000	0.301333	0.701597
279.6000	0.301973	0.701674
279.5000	0.305235	0.701738
279.4000	0.30792	0.701805
279.3000	0.309367	0.701877
279.2000	0.31005	0.701947
279.1000	0.316439	0.702035
279.0000	0.327872	0.702121
278.9000	0.336504	0.702217
278.8000	0.344779	0.702324
278.7000	0.356182	0.702433
278.6000	0.363585	0.702541
278.5000	0.372559	0.702662
278.4000	0.378236	0.702772
278.3000	0.378643	0.702879
278.2000	0.375522	0.70299
278.1000	0.371845	0.703105
278.0000	0.366917	0.703228
277.9000	0.360754	0.703358
277.8000	0.351842	0.703478
277.7000	0.33761	0.703614
277.6000	0.324226	0.703727
277.5000	0.316658	0.703861
277.4000	0.313564	0.703988
277.3000	0.311248	0.704127
277.2000	0.303398	0.704282
277.1000	0.301222	0.704435
277.0000	0.304979	0.704597
276.9000	0.308176	0.704775
276.8000	0.302289	0.704935
276.7000	0.294359	0.705094
276.6000	0.289888	0.705257
